# FREQS (CM^-1)
37.8584
44.5007
44.5007
49.7998
49.7998
50.9793
50.9793
54.9273
54.9273
56.2067
56.2067
56.2067
56.2067
57.0342
57.0342
57.5520
57.5520
57.5755
57.5755
57.5755
57.5755
59.4015
59.4015
59.9185
59.9185
59.9185
59.9185
61.9808
61.9808
61.9808
61.9808
67.4751
67.4751
67.4751
67.4751
68.3423
68.3423
69.0257
69.0257
69.0257
69.0257
70.3665
70.3665
70.3665
70.3665
72.1362
72.1362
73.0133
73.0133
73.0133
73.0133
73.2679
73.2679
74.7121
74.7121
74.7121
74.7121
75.2092
75.2092
75.2092
75.2092
75.3573
75.3573
77.3059
77.3059
78.7442
78.7442
78.7442
78.7442
79.5602
79.5602
79.5602
79.5602
79.8111
79.8111
80.9528
80.9528
81.7664
81.7664
81.7664
81.7664
82.1024
82.1024
82.1024
82.1024
83.1603
83.1603
83.3726
83.3726
83.9945
83.9945
83.9945
83.9945
85.0708
86.9365
86.9365
87.4189
87.4189
89.2554
89.2554
89.2554
89.2554
91.3668
91.3668
91.7884
91.7884
91.7884
91.7884
92.0654
93.6492
93.6492
93.6492
93.6492
93.9292
93.9292
94.1419
94.1419
97.5061
97.7732
97.7732
97.7732
97.7732
98.8624
98.8624
98.8647
98.8647
99.0736
99.0736
99.0736
99.0736
101.3729
101.3729
101.8749
101.8749
102.0239
102.0239
102.0239
102.0239
102.8585
102.8585
104.0515
104.0515
104.0515
104.0515
105.8556
105.8556
109.7573
109.7573
109.7573
109.7573
110.2131
110.2131
110.2131
110.2131
110.5022
110.5022
112.1261
112.1261
112.1261
112.1261
112.6128
112.6128
112.6128
112.6128
113.1671
113.1671
113.6472
113.6472
113.7391
113.7391
115.3801
115.3801
115.3801
115.3801
115.5838
115.5838
115.5838
115.5838
116.1612
116.1612
116.9322
116.9322
116.9331
117.1569
117.1569
117.4851
117.4851
117.7962
117.7962
117.7962
117.7962
121.3117
121.3117
121.3117
121.3117
121.6508
121.6508
122.0263
122.0263
122.0349
122.0349
122.0349
122.0349
122.1022
122.1022
122.1489
122.1489
122.1489
122.1489
123.6508
123.6508
123.8073
123.8073
123.8073
123.8073
124.7910
124.7910
124.7910
124.7910
125.2154
125.2154
125.4838
125.4838
125.4838
125.4838
125.8139
125.8139
126.1379
126.1379
126.2439
126.2439
126.2439
126.2439
126.3059
126.3059
126.3059
126.3059
126.3671
126.3671
127.1634
127.5970
127.5970
127.5970
127.5970
128.4027
128.4027
128.5857
128.5857
129.3603
129.3603
130.5774
130.5774
130.5774
130.5774
131.1261
131.1261
132.0779
132.0779
132.0779
132.0779
132.1417
132.1417
132.1417
132.1417
132.4824
132.4824
136.5209
136.5209
138.0698
138.0698
138.8264
138.8264
138.9029
138.9029
138.9029
138.9029
139.5018
139.5018
139.5018
139.5018
140.7311
140.7311
140.7311
140.7311
141.7144
141.7144
141.7922
141.7922
143.0328
143.0328
143.0328
143.0328
143.1331
143.1331
143.1331
143.1331
144.8170
144.8170
144.8174
144.8174
144.8174
144.8174
146.4600
146.4600
147.4065
147.4065
147.4065
147.4065
147.9859
147.9859
148.1319
148.1319
148.7711
148.7711
148.7711
148.7711
149.7482
151.4991
151.4991
152.2313
152.5605
152.5605
153.2036
153.2036
153.2036
153.2036
153.2248
153.2248
153.2248
153.2248
155.0634
155.0634
155.0634
155.0634
155.3041
155.3041
155.8842
155.8842
155.9460
155.9460
155.9460
155.9460
156.7126
156.7126
160.3249
160.3249
160.3249
160.3249
161.5309
161.5309
161.5309
161.5309
161.6642
161.6642
162.7088
162.7088
162.7088
162.7088
163.1322
163.1322
163.3357
163.3357
163.3357
163.3357
163.5148
163.5148
164.1109
164.1109
166.3392
166.3392
167.3359
167.3359
167.8555
167.8555
168.6163
168.6163
168.7515
168.7515
168.7515
168.7515
169.1342
169.1342
169.7807
169.7807
169.7807
169.7807
172.5078
172.5078
172.5733
172.5733
173.9959
173.9959
173.9959
173.9959
175.1062
175.1062
175.1062
175.1062
176.0014
176.0684
176.0684
176.5630
176.5630
176.7508
176.7508
176.7508
176.7508
176.8826
176.8826
176.8826
176.8826
177.1376
177.1376
177.7141
177.9741
177.9741
178.9766
178.9766
179.0731
179.0731
179.5329
179.5329
179.5329
179.5329
180.1890
180.1890
181.7465
181.7465
181.7465
181.7465
182.7003
182.7003
182.7003
182.7003
183.1712
183.1712
184.0679
184.0679
184.0679
184.0679
187.2117
187.2117
187.2117
187.2117
189.3105
189.3105
189.3105
189.3105
189.7025
189.7025
189.8406
189.8406
189.9379
189.9379
190.5396
190.5396
190.5396
190.5396
192.5149
192.5149
193.1398
193.1398
193.1398
193.1398
193.2672
195.2416
195.2416
195.3298
195.3298
195.3298
195.3298
195.6321
195.6321
195.6321
195.6321
195.9210
195.9210
195.9210
195.9210
196.7459
196.7459
196.7459
196.7459
196.9185
196.9185
197.8674
197.8674
198.0650
198.0650
198.0650
198.0650
203.4985
203.4985
203.6623
203.6623
204.6297
204.6297
204.6297
204.6297
205.0320
205.0320
205.0320
205.0320
205.7613
205.7613
205.7613
205.7613
207.9101
207.9101
207.9101
207.9101
208.5661
208.5661
208.8310
208.8310
208.8310
208.8310
209.7621
209.7621
210.2574
210.2574
210.2574
210.2574
215.3281
215.3281
216.3350
216.3350
220.3128
220.3128
221.1350
221.1350
221.1350
221.1350
221.6025
221.6025
221.6025
221.6025
221.7996
221.7996
221.7996
221.7996
221.9186
221.9186
222.4471
222.4471
222.4621
222.4621
222.4621
222.4621
222.6586
222.6586
224.3568
224.3568
225.0288
225.0288
225.0288
225.0288
227.6121
227.6247
227.6247
227.8419
227.8419
229.0185
229.0185
229.0185
229.0185
229.4096
229.4096
229.4739
229.4739
231.1473
231.1473
231.1473
231.1473
232.2147
232.2147
233.2557
233.2557
233.2557
233.2557
233.8099
233.8099
236.2839
236.2839
236.6111
238.3273
238.3273
238.3850
238.3850
238.3850
238.3850
239.0058
239.0058
239.0058
239.0058
240.5377
240.5377
240.5606
240.5606
240.5606
240.5606
241.3244
241.3244
243.8858
243.8858
244.0363
244.0363
244.0363
244.0363
245.8342
245.8342
245.8342
245.8342
248.2409
248.2409
248.2409
248.2409
249.2013
249.2013
250.7467
250.7467
252.1035
252.1035
252.1035
252.1035
259.2928
259.2928
260.7399
260.7399
260.7399
260.7399
264.7825
264.7825
264.7825
264.7825
266.8451
267.5453
267.5453
271.7042
271.7042
271.7042
271.7042
271.8759
271.8759
274.6444
274.6444
274.6444
274.6444
275.5447
275.5447
279.2455
279.2455
279.2455
279.2455
279.4793
279.4793
279.7922
279.7922
279.7922
279.7922
280.3885
280.3885
281.8122
281.8122
282.3904
282.3904
282.3904
282.3904
284.9228
284.9228
285.5348
285.5348
286.9125
286.9125
286.9125
286.9125
288.3284
289.1603
289.1603
289.1939
289.1939
290.7037
290.7037
290.7421
290.7421
290.7421
290.7421
291.0119
291.0119
291.0119
291.0119
291.7863
291.7863
291.7863
291.7863
291.8837
291.8837
292.2798
292.2798
292.4113
292.4113
292.7592
292.7592
292.7740
293.3915
293.3915
293.3915
293.3915
294.1181
294.1181
294.1181
294.1181
294.2225
294.2225
294.2225
294.2225
294.4202
294.4202
294.4202
294.4202
294.6727
294.8763
295.5444
295.5444
295.5444
295.5444
296.2723
296.2723
296.2723
296.2723
298.3720
298.3720
299.5696
299.5696
299.5696
299.5696
299.8315
299.8315
299.8315
299.8315
300.4717
300.4717
300.9527
300.9527
301.5654
301.5654
302.3465
302.3465
302.7487
302.7487
302.7487
302.7487
303.9928
303.9928
304.4430
304.4430
304.4882
304.4882
304.4882
304.4882
305.0452
305.0452
305.0452
305.0452
306.4364
306.4364
306.4364
306.4364
307.2978
307.2978
308.3540
308.3540
309.1106
309.1106
309.6495
309.6495
309.6495
309.6495
309.7854
309.7854
309.8018
309.8018
309.8018
309.8018
310.0393
310.0393
310.6204
310.6204
310.6204
310.6204
310.7403
310.7403
310.7403
310.7403
311.2422
311.2422
311.2422
311.2422
312.2160
312.2160
312.6176
312.6176
312.6571
312.6571
312.6571
312.6571
313.6789
313.8190
313.8190
314.0448
314.0448
314.5098
314.5098
314.5733
314.5733
314.5733
314.5733
315.2928
315.2928
315.4300
315.4300
315.8948
315.8948
316.0442
316.0442
316.1234
316.1234
316.4503
316.4503
316.4503
316.4503
316.4967
316.4967
316.6974
316.6974
316.6974
316.6974
316.8557
316.8557
316.8557
316.8557
317.1232
317.1232
317.1232
317.1232
317.1910
317.1910
317.7030
317.7030
318.0561
318.0561
318.0561
318.0561
318.6765
318.6765
318.6765
318.6765
318.7578
318.7578
318.7578
318.7578
319.6196
319.6196
319.6196
319.6196
319.7168
319.7168
320.4678
320.4678
320.5397
320.5397
320.5397
320.5397
320.7898
320.8889
320.9333
320.9333
321.4751
321.4751
321.4751
321.4751
322.9136
322.9136
322.9136
322.9136
322.9487
322.9487
322.9487
322.9487
323.5028
323.8240
323.8240
323.8735
323.8735
323.9173
323.9173
323.9173
323.9173
324.0725
324.0725
324.0725
324.0725
324.3860
324.3860
324.3860
324.3860
324.5166
324.5166
324.6914
324.6914
325.5452
325.5452
326.2480
326.2480
327.1043
327.1043
327.1043
327.1043
328.1680
328.1680
328.1680
328.1680
328.6811
328.6811
328.6811
328.6811
329.9600
329.9600
329.9600
329.9600
332.7956
332.7956
333.2819
337.6491
337.6491
337.9469
337.9469
338.2447
338.2447
338.2447
338.2447
338.5615
338.5615
338.5615
338.5615
348.9271
348.9271
348.9271
348.9271
349.1903
349.1903
353.6075
353.6075
355.8964
355.8964
355.8964
355.8964
355.8996
355.8996
358.5237
358.5237
367.9787
367.9787
369.3051
369.3051
382.1847
382.1847
392.8649
392.8649
676.8125
676.8125
676.8125
676.8125
676.9710
676.9710
676.9710
676.9710
677.0590
677.0676
677.0676
677.1375
677.1375
677.2874
677.5937
677.5937
677.6008
677.6008
677.6008
677.6008
677.9028
677.9028
677.9028
677.9028
677.9425
677.9425
677.9425
677.9425
678.0041
678.0041
678.0041
678.0041
678.0527
678.0527
678.0527
678.0527
678.1792
678.1792
678.1792
678.1792
678.5274
678.5274
678.5274
678.5274
678.6663
678.6663
678.6663
678.6663
678.8862
678.8862
678.8862
678.8862
678.8946
678.8946
678.8946
678.8946
678.9151
678.9151
678.9284
678.9284
678.9419
678.9419
679.0659
679.0659
679.0659
679.0659
679.1172
679.1172
679.2412
679.2412
679.2412
679.2412
679.4111
679.4111
679.5707
679.5707
679.5707
679.5707
679.5743
679.5743
679.9093
679.9093
679.9890
679.9890
680.4123
680.4123
680.4123
680.4123
682.2273
682.2273
682.2273
682.2273
682.2901
682.2901
682.3086
682.3086
682.7577
682.7577
682.9854
682.9854
683.1800
683.1800
683.2507
683.2507
683.2507
683.2507
683.2781
683.2781
683.2781
683.2781
683.4389
683.4389
683.4623
683.4623
683.6051
683.6051
683.6051
683.6051
683.6301
683.6301
683.8489
683.8489
683.9099
683.9099
683.9190
683.9190
683.9400
684.3558
684.3558
684.4829
684.4829
684.6473
684.6473
684.6473
684.6473
684.6938
684.6938
684.7672
684.7672
684.7672
684.7672
684.8429
684.8429
684.8429
684.8429
684.8678
684.8678
684.8678
684.8678
685.1694
685.1694
685.2247
685.2247
685.2247
685.2247
685.2300
685.2300
685.2758
685.2758
685.2758
685.2758
685.3417
685.3417
685.5702
685.5702
685.6307
685.6307
685.6307
685.6307
685.6940
685.6940
685.7893
685.7893
685.9574
685.9574
686.1378
686.1378
686.1628
686.1628
686.1628
686.1628
686.2265
686.2265
686.2265
686.2265
686.3807
686.3807
686.4219
686.4219
686.4219
686.4219
686.7440
686.7591
686.7591
686.7591
686.7591
686.8329
686.8329
686.9271
686.9271
686.9271
686.9271
686.9698
686.9698
687.0839
687.0839
687.5327
687.5327
687.5929
687.5929
687.5929
687.5929
687.8027
687.8027
687.8027
687.8027
819.4539
820.4793
820.4793
821.2064
821.2064
821.2158
821.2158
821.2158
821.2158
821.2764
821.2764
821.2764
821.2764
821.3508
821.3899
821.3899
821.3899
821.3899
821.4735
821.4735
821.5336
821.5336
821.6710
821.6710
821.6710
821.6710
821.6783
821.6783
821.6783
821.6783
821.6935
821.6935
821.7020
821.7020
821.7020
821.7020
821.7228
821.7228
821.7981
821.7981
821.8112
821.8112
821.8112
821.8112
821.8719
821.9573
821.9573
821.9982
821.9982
821.9982
821.9982
822.0627
822.0627
822.0627
822.0627
822.1425
822.1425
822.1425
822.1425
822.4976
822.4976
822.4976
822.4976
822.4981
822.4981
822.4991
822.4991
822.4991
822.4991
822.4996
822.4996
822.5256
822.5256
822.7886
822.7886
822.7886
822.7886
822.8462
822.8462
822.8462
822.8462
822.9098
822.9098
823.0228
823.0373
823.0373
823.0466
823.0466
823.0466
823.0466
823.0739
823.0739
823.3200
823.3200
823.3200
823.3200
823.8030
823.8030
824.4811
824.4811
825.8056
825.8056
826.0607
826.0607
826.3943
826.3943
831.7863
831.7863
1051.9107
1051.9107
1051.9258
1051.9258
1051.9772
1051.9772
1052.0948
1052.0948
1052.1477
1052.1477
1052.1477
1052.1477
1052.1764
1052.1764
1052.1824
1052.1824
1052.1824
1052.1824
1052.2266
1052.2266
1052.2308
1052.2308
1052.2308
1052.2308
1052.2433
1052.2433
1052.2435
1052.2435
1052.2435
1052.2435
1052.2629
1052.2824
1052.2824
1052.2871
1052.2871
1052.2871
1052.2871
1052.2971
1052.2971
1052.3196
1052.3196
1052.3196
1052.3196
1052.3387
1052.3387
1052.3387
1052.3387
1052.3501
1052.3501
1052.3556
1052.3556
1052.3556
1052.3556
1052.3667
1052.3667
1052.3681
1052.3681
1052.3681
1052.3681
1052.3748
1052.3748
1052.3970
1052.3970
1052.3970
1052.3970
1052.4111
1052.4111
1052.4111
1052.4111
1052.4265
1052.4265
1052.4265
1052.4265
1052.4547
1052.4547
1052.4547
1052.4547
1052.4826
1052.4826
1052.4945
1052.4945
1052.5055
1052.5055
1052.5188
1052.5188
1052.5188
1052.5188
1052.5286
1052.5286
1052.5440
1052.5440
1052.5440
1052.5440
1052.5519
1052.5519
1052.5519
1052.5519
1052.5858
1052.5858
1052.5917
1052.5917
1052.7160
1052.7160
1052.7275
1052.7275
1052.7775
1052.8498
1053.3583
1375.5452
1375.5452
1380.8216
1380.8216
1383.8630
1383.8630
1383.8630
1383.8630
1385.6043
1385.6043
1386.8929
1386.8929
1386.8929
1386.8929
1388.5476
1388.5476
1390.6492
1390.6492
1391.6489
1391.6489
1391.6489
1391.6489
1392.1305
1392.1305
1392.3917
1393.0684
1393.0684
1394.5675
1394.5675
1394.5675
1394.5675
1398.2507
1398.2507
1398.2507
1398.2507
1398.7278
1398.7278
1398.7278
1398.7278
1399.4904
1399.4904
1399.4904
1399.4904
1399.9455
1399.9455
1399.9455
1399.9455
1399.9838
1399.9838
1400.4474
1400.4474
1400.7436
1400.7436
1401.2937
1401.2937
1401.2937
1401.2937
1402.6281
1402.6281
1407.2283
1407.2283
1407.4483
1407.4483
1407.9739
1407.9739
1407.9739
1407.9739
1408.4221
1408.4221
1409.1720
1409.1720
1409.1720
1409.1720
1409.2184
1409.2184
1410.1124
1410.1124
1410.1124
1410.1124
1410.5344
1410.5344
1411.0248
1411.0248
1411.0248
1411.0248
1411.3956
1412.2520
1412.2520
1412.2520
1412.2520
1412.2544
1412.2544
1412.2544
1412.2544
1412.5595
1412.5595
1413.1261
1413.1261
1413.1261
1413.1261
1415.1124
1415.1124
1415.3005
1415.3005
1418.0981
1418.0981
1418.0981
1418.0981
1418.1364
1418.1364
1418.8682
1418.8682
1419.5162
1419.5162
1419.5162
1419.5162
1419.7757
1419.7757
1420.7649
1420.7649
1421.3186
1421.3186
1423.8743
1423.8743
1425.0684
1425.0684
1425.7406
1425.7406
1425.7406
1425.7406
1426.6428
1426.6428
1426.6428
1426.6428
1427.3922
1427.3922
1434.1156
1434.7628
1434.7628
1434.7628
1434.7628
1435.0520
1435.0520
1436.0641
1436.0641
1436.0641
1436.0641
1436.7322
1436.7322
1436.7322
1436.7322
1439.9145
1439.9145
1442.3862
1442.3862
1442.3862
1442.3862
1444.1927
1444.1927
1457.0000
1457.0000
1457.0000
1457.0000
1457.4007
1457.4007
1457.6018
1457.6018
1457.6018
1457.6018
1458.7002
1458.7002
1459.0837
1459.0837
1459.0837
1459.0837
1460.4347
1460.4347
1460.4347
1460.4347
1465.1736
1465.1736
1465.1736
1465.1736
1466.8053
1466.8053
1467.5273
1467.5273
1467.5273
1467.5273
1471.9946
1471.9946
1471.9946
1471.9946
1479.0857
1479.0857
1484.5210
1486.2560
1486.2560
1486.9272
1486.9272
1487.1362
1487.1362
1487.1362
1487.1362
1487.6771
1487.6771
1487.6771
1487.6771
1488.2670
1488.2670
1488.3829
1488.3829
1488.3829
1488.3829
1503.8390
1503.8390
